time (s)	coil I (A)	last det (V)	int current (uC)
6800.878032	0.348314	448.046875	-9.570312
6800.880033	0.347005	3.817057	0.356230
6801.904655	0.349101	117.773437	88.085937
6801.910656	0.347349	3.820841	0.382631
6802.961189	1.920731	450.781250	-12.695312
6802.963191	0.350088	3.850964	0.336414
6803.985285	0.350245	109.960937	151.855469
6803.987285	0.350356	3.853915	0.362449
6805.033323	0.348362	452.148437	-12.109375
6805.035326	0.348010	3.828108	0.362012
6806.059402	0.348621	109.277344	166.210937
6806.061404	0.347464	3.822108	0.646223
6807.105371	0.312793	447.167969	-11.621094
6807.107371	0.348686	447.167969	-11.621094
6807.109372	0.347643	3.824075	0.359285
6808.139456	0.348314	110.058594	162.500000
6808.141458	0.347231	3.819538	0.375982
6809.181459	0.349558	443.652344	-13.769531
6809.183461	0.348449	3.832938	0.547344
6810.219580	0.348896	107.519531	146.191406
6810.221582	0.347938	3.827319	0.379668
6811.255607	0.348669	447.070312	-18.359375
6811.257609	0.347429	3.821718	0.390948
6812.295626	0.320121	103.222656	113.769531
6812.297627	0.348108	103.222656	113.769531
6812.299629	0.347047	3.817517	0.342190
6813.337664	0.349058	456.933594	-20.703125
6813.339666	0.348076	3.828835	0.390877
6814.368224	0.347585	106.347656	76.855469
6814.370227	0.346795	3.814744	0.363984
6815.418780	0.349545	457.714844	-16.210937
6815.420783	0.349068	3.839753	0.376762
6816.440854	1.729659	112.207031	129.296875
6816.442856	0.350743	112.207031	129.296875
6816.444862	0.349975	3.849723	0.374449
6817.494938	0.349451	450.097656	-12.207031
6817.496941	0.348563	3.834197	0.345657
6818.523511	0.314663	111.425781	138.476562
6818.525511	0.317605	111.425781	138.476562
6818.527511	0.347198	3.819175	0.391032
6819.561553	0.346108	447.656250	-20.898437
6819.565553	0.347339	3.820726	0.383687
6820.601606	0.305630	109.667969	62.304687
6820.603610	0.348194	109.667969	62.304687
6820.605609	0.347170	3.818874	0.338271
6821.645656	0.312950	460.839844	-20.019531
6821.647657	0.348815	460.839844	-20.019531
6821.649658	0.347840	3.826238	0.394269
6822.667680	0.317440	114.355469	79.882812
6822.669684	0.347944	114.355469	79.882812
6822.671681	0.346936	3.816295	0.384790
6823.724662	0.346358	456.542969	-10.546875
6823.726665	0.347938	3.827319	0.349170
6824.754671	0.348809	116.796875	133.886719
6824.756674	0.347642	3.824067	0.387577
6825.791200	0.301525	448.535156	-18.457031
6825.793202	0.348243	448.535156	-18.457031
6825.795202	0.347176	3.818935	0.384515
6826.831283	1.910285	110.937500	80.957031
6826.833284	0.348375	110.937500	80.957031
6826.835284	0.347196	3.819157	0.370409
6827.875837	0.347311	457.910156	-22.363281
6827.877840	0.346639	3.813024	0.420689
6828.903841	0.349211	100.976562	144.824219
6828.905842	0.348252	3.830767	0.352687
6829.955845	0.348506	464.941406	-16.601562
6829.957852	0.347314	3.820451	0.388251
6830.977861	0.338670	116.113281	131.347656
6830.979861	0.347646	116.113281	131.347656
6830.981860	0.346797	3.814770	0.393582
6832.027929	0.348400	450.585937	-11.328125
6832.029929	0.347367	3.821036	0.355157
6833.062892	0.344400	113.476562	144.042969
6833.064896	0.348758	3.836341	0.379488
6834.098933	0.348944	447.753906	-20.214844
6834.100934	0.347653	447.753906	-20.214844
6834.102935	0.347029	3.817323	0.397096
6835.142969	0.348278	102.050781	159.277344
6835.144970	0.347596	3.823561	0.356662
6836.178941	0.348459	457.519531	-22.460937
6836.180943	0.347243	457.519531	-22.460937
6836.182944	0.346530	3.811828	0.393525
6837.212983	0.308698	102.148437	129.003906
6837.214985	0.347772	102.148437	129.003906
6837.216985	0.346722	3.813946	0.351563
6838.259059	0.313396	464.160156	-19.921875
6838.261060	0.347919	464.160156	-19.921875
6838.263060	0.347870	3.826566	0.398663
6839.285666	0.316952	111.328125	73.437500
6839.287666	0.347884	111.328125	73.437500
6839.289667	0.346829	3.815116	0.364929
6840.339746	0.348705	460.937500	-19.531250
6840.341747	0.347436	3.821798	0.381236
6841.361713	0.257003	106.933594	138.281250
6841.363715	0.349008	106.933594	138.281250
6841.365715	0.347837	3.826211	0.369064
6842.417768	0.347170	464.355469	-15.332031
6842.419769	0.346454	3.810995	0.479180
6843.440312	0.348310	104.687500	174.707031
6843.442314	0.347611	3.823721	0.546594
6844.492348	0.345776	463.378906	-16.210937
6844.496348	0.347684	3.824528	0.372368
6845.516363	0.348580	115.625000	109.667969
6845.518364	0.347499	3.822489	0.445317
6846.572410	0.347733	463.574219	-16.015625
6846.574408	0.347697	3.824670	0.367216
6847.590963	0.326851	110.156250	138.574219
6847.592965	0.348451	110.156250	138.574219
6847.594965	0.347500	3.822498	0.377522
6848.647006	0.348418	464.648437	-15.917969
6848.649009	0.347153	3.818687	0.382330
6849.669522	0.348627	109.570312	123.339844
6849.671523	0.347348	3.820832	0.378895
6850.721573	0.307698	463.867187	-19.042969
6850.723575	0.311407	463.867187	-19.042969
6850.725576	0.347004	3.817039	0.387561
6851.747639	0.338707	106.835937	121.582031
6851.749642	0.348028	106.835937	121.582031
6851.751643	0.347111	3.818218	0.364228
6852.797722	0.349065	461.328125	-22.265625
6852.799725	0.348272	3.830988	0.393832
6853.827723	0.346136	110.058594	83.789062
6853.829727	0.347675	3.824421	0.362304
6854.868298	0.339739	459.570312	-22.558594
6854.870299	0.348181	459.570312	-22.558594
6854.872298	0.347269	3.819955	0.396678
6855.910357	0.320913	110.058594	114.746094
6855.912359	0.347945	110.058594	114.746094
6855.914361	0.346953	3.816481	0.365424
6856.944954	0.372090	454.003906	-19.921875
6856.946953	0.348127	3.829402	0.384781
6857.985499	0.348465	120.214844	112.011719
6857.987499	0.347611	3.823721	0.389384
6859.024452	0.348285	453.320312	-12.792969
6859.026453	0.347435	3.821789	0.359087
6860.056490	0.342475	120.214844	142.578125
6860.060492	0.347892	120.214844	142.578125
6860.062494	0.347408	3.821488	0.394497
6861.107047	0.349309	462.792969	-15.136719
6861.109050	0.349159	3.840746	0.360683
6862.129089	0.349485	114.453125	107.226562
6862.131090	0.348552	3.834072	0.385640
6863.183664	0.349554	464.746094	-20.898437
6863.185666	0.348433	3.832761	0.574853
6864.213706	0.348856	111.328125	85.449219
6864.215708	0.347711	3.824820	0.355207
6865.250673	0.340458	457.324219	-23.632812
6865.252675	0.348056	457.324219	-23.632812
6865.254676	0.347128	3.818404	0.399985
6866.292695	0.275053	109.960937	143.945312
6866.294699	0.348463	109.960937	143.945312
6866.296698	0.347197	3.819166	0.375165
6867.326722	0.336456	449.121094	-18.652344
6867.330722	0.348051	449.121094	-18.652344
6867.332723	0.346614	3.812749	0.374656
6868.366733	0.315936	117.675781	162.207031
6868.368737	0.348672	117.675781	162.207031
6868.370735	0.347605	3.823650	0.395441
6869.410803	0.344060	460.156250	-12.109375
6869.412803	0.348110	460.156250	-12.109375
6869.414804	0.347174	3.818918	0.360520
6870.434849	0.325417	113.964844	148.925781
6870.436848	0.348373	113.964844	148.925781
6870.438851	0.347328	3.820610	0.398149
6871.490915	0.340118	466.406250	-17.968750
6871.492916	0.348170	466.406250	-17.968750
6871.494917	0.347283	3.820114	0.379045
6872.518975	0.348426	110.253906	102.343750
6872.520976	0.347632	3.823951	0.353569
6873.565048	0.347140	465.332031	-22.070312
6873.571049	0.345873	3.804605	0.403271
6874.597612	1.752990	112.207031	86.230469
6874.599615	0.347654	3.824191	0.516756
6875.634571	0.349195	454.394531	-24.511719
6875.636573	0.348826	3.837085	0.391011
6876.678572	0.317888	116.113281	102.929687
6876.680572	0.348148	116.113281	102.929687
6876.682573	0.347081	3.817890	0.363935
6877.710613	0.336953	452.636719	-19.824219
6877.712615	0.347648	452.636719	-19.824219
6877.714615	0.346695	3.813645	0.378652
6878.754645	0.347988	115.625000	155.468750
6878.758644	0.347207	3.819272	0.383656
6879.789215	0.346849	453.320312	-15.820312
6879.791213	0.348088	3.828968	0.360383
6880.827259	0.340677	115.527344	179.882812
6880.829259	0.347556	115.527344	179.882812
6880.831261	0.346625	3.812874	0.393689
6881.873310	0.348465	457.519531	-14.550781
6881.875311	0.347747	3.825219	0.358319
6882.899345	0.316167	117.187500	168.847656
6882.901347	0.348442	117.187500	168.847656
6882.903346	0.347417	3.821585	0.405504
6883.947402	1.400882	460.449219	-15.136719
6883.949402	0.347994	3.827931	0.361101
6884.977487	0.347543	109.667969	213.378906
6884.979489	0.346659	3.813246	0.393470
6886.029503	0.347464	459.765625	-17.285156
6886.031503	0.346789	3.814682	0.528852
6887.053477	0.347964	114.648437	180.468750
6887.055482	0.349270	3.841969	0.389928
6888.103495	0.348482	460.937500	-16.503906
6888.105497	0.347561	3.823172	0.371127
6889.131514	0.349023	119.726562	150.585937
6889.133515	0.348227	3.830492	0.397925
6890.178079	0.349545	460.937500	-14.746094
6890.180080	0.348654	3.835198	0.393163
6891.208068	0.341415	110.839844	218.652344
6891.210070	0.348061	110.839844	218.652344
6891.212069	0.347176	3.818935	0.403911
6892.252039	0.268339	455.371094	-16.992187
6892.254040	0.273025	455.371094	-16.992187
6892.256039	0.347513	3.822640	0.372316
6893.288080	0.330636	116.699219	176.855469
6893.290080	0.332877	116.699219	176.855469
6893.292082	0.346537	3.811908	0.394177
6894.326103	0.348704	455.566406	-16.406250
6894.328106	0.348540	3.833940	0.371429
6895.367100	0.348614	119.921875	125.488281
6895.369102	0.347408	3.821488	0.393679
6896.401689	0.347727	455.566406	-22.265625
6896.403690	0.347895	3.826841	0.378348
6897.443749	0.269245	107.812500	171.777344
6897.445751	0.348254	107.812500	171.777344
6897.447750	0.346990	3.816888	0.376109
6898.479861	0.349116	462.109375	-24.218750
6898.481863	0.348217	3.830385	0.398776
6899.516375	0.276527	110.644531	111.718750
6899.518377	0.348257	110.644531	111.718750
6899.520377	0.347078	3.817854	0.369718
6900.558980	0.293823	468.359375	-23.828125
6900.560983	0.347797	468.359375	-23.828125
6900.562986	0.346690	3.813592	0.402182
6901.590974	0.349646	103.027344	178.808594
6901.592975	0.348734	3.836075	0.366764
6902.642979	0.348182	469.238281	-20.507812
6902.644982	0.347475	3.822223	0.387850
6903.665039	0.347693	113.964844	158.593750
6903.667038	0.347055	3.817606	0.386949
6904.717101	0.347770	463.964844	-18.066406
6904.719101	0.347729	3.825024	0.375905
6905.747118	0.348229	122.656250	148.828125
6905.749120	0.347115	3.818262	0.398368
6906.789158	0.349170	455.175781	-18.457031
6906.793161	0.347826	3.826087	0.369190
6907.827203	0.345043	111.718750	191.992187
6907.829204	0.348970	3.838672	0.390047
6908.861308	0.349703	459.179687	-21.484375
6908.863309	0.348541	3.833948	0.621469
6909.903338	0.275707	108.300781	162.597656
6909.905339	0.348287	108.300781	162.597656
6909.907339	0.347074	3.817810	0.380763
6910.941425	0.348513	466.503906	-25.000000
6910.943427	0.347380	3.821177	0.405544
6911.976006	0.327135	104.882812	157.910156
6911.980008	0.346894	104.882812	157.910156
6911.982008	0.346402	3.810419	0.367806
6913.022073	0.347565	471.972656	-22.753906
6913.024076	0.349574	3.845310	0.393036
6914.048641	0.293476	104.589844	179.980469
6914.050645	0.348868	104.589844	179.980469
6914.052643	0.347768	3.825449	0.384029
6915.102710	0.347953	473.144531	-18.359375
6915.104710	0.347895	3.826849	0.386908
6916.123705	0.285949	115.625000	151.953125
6916.125707	0.347912	115.625000	151.953125
6916.127706	0.346699	3.813689	0.396788
6917.176259	0.272840	469.531250	-17.480469
6917.178260	0.348632	469.531250	-17.480469
6917.180263	0.347382	3.821204	0.379618
6918.204267	0.313291	116.503906	184.179687
6918.206270	0.348241	116.503906	184.179687
6918.208270	0.347194	3.819139	0.397286
6919.254331	0.347663	461.230469	-18.554687
6919.256333	0.346861	3.815470	0.360791
6920.284339	0.348373	120.312500	171.582031
6920.286341	0.347162	3.818785	0.409261
6921.326890	0.349562	460.937500	-16.992187
6921.328892	0.348623	3.834852	0.371541
6922.363515	0.350492	115.917969	192.578125
6922.365518	0.349545	3.845000	0.456114
6923.399573	0.267489	459.472656	-18.847656
6923.401573	0.272592	459.472656	-18.847656
6923.405572	0.346125	3.807370	0.374517
6924.441628	0.348430	118.945312	166.796875
6924.443630	0.347298	3.820274	0.398869
6925.480151	0.347308	460.742187	-18.457031
6925.484152	0.346278	3.809054	0.377685
6926.518677	0.347972	122.070312	147.949219
6926.520677	0.347419	3.821612	0.387949
6927.552742	0.302420	460.156250	-19.433594
6927.554746	0.348278	460.156250	-19.433594
6927.556744	0.347144	3.818581	0.377171
6928.594798	0.349709	119.433594	170.312500
6928.596799	0.348587	3.834454	0.626804
6929.631758	0.348417	462.109375	-17.187500
6929.635758	0.346733	3.814061	0.378259
6930.668312	0.306482	115.429687	210.546875
6930.670313	0.347805	115.429687	210.546875
6930.672314	0.346711	3.813822	0.401590
6931.710339	0.265731	464.257812	-17.285156
6931.714339	0.347655	464.257812	-17.285156
6931.716343	0.346917	3.816091	0.371057
6932.742360	0.302150	122.753906	162.792969
6932.744361	0.348908	122.753906	162.792969
6932.746363	0.347909	3.827000	0.403876
6933.794391	0.348870	470.214844	-17.675781
6933.796393	0.348225	3.830474	0.473134
6934.814384	0.297637	115.234375	189.746094
6934.816386	0.348539	115.234375	189.746094
6934.818386	0.347474	3.822214	0.408098
6935.870439	0.309939	475.292969	-17.675781
6935.872440	0.347956	3.827514	0.385055
6936.893014	0.345690	107.519531	199.414062
6936.895016	0.347934	3.827275	0.385505
6937.947481	0.347076	472.851562	-23.437500
6937.949488	0.346376	3.810135	0.401143
6938.973571	0.348527	111.914062	131.445312
6938.975574	0.347521	3.822728	0.368055
6940.018137	0.351776	473.144531	-25.195312
6940.020137	0.351870	3.870567	0.401618
6941.054725	0.347201	112.890625	126.171875
6941.056725	0.347408	3.821488	0.354999
6942.091674	0.349319	468.261719	-25.195312
6942.095675	0.347497	3.822463	0.407467
6943.132255	0.290556	117.382812	128.613281
6943.134258	0.347834	117.382812	128.613281
6943.136257	0.346596	3.812555	0.376668
6944.166294	0.348363	462.695312	-22.558594
6944.168296	0.347191	3.819104	0.397547
6945.210846	0.348747	110.253906	231.640625
6945.212849	0.347762	3.825387	0.390085
6946.242824	1.860158	461.718750	-18.750000
6946.244824	0.349278	461.718750	-18.750000
6946.246824	0.348181	3.829987	0.385610
6947.280904	0.280886	121.777344	180.273437
6947.282907	0.348393	121.777344	180.273437
6947.286904	0.346500	3.811500	0.408063
6948.327486	1.152147	469.824219	-15.136719
6948.329489	0.347964	3.827603	0.372999
6949.353531	0.285482	116.796875	191.308594
6949.355535	0.348936	116.796875	191.308594
6949.357540	0.347702	3.824723	0.402315
6950.407541	0.340165	474.414062	-19.335937
6950.409543	0.347792	474.414062	-19.335937
6950.411544	0.346882	3.815701	0.376201
6951.433606	0.346930	113.964844	161.718750
6951.435609	0.346291	3.809196	0.389243
6952.482173	0.340719	474.707031	-23.046875
6952.484175	0.347957	474.707031	-23.046875
6952.486175	0.347033	3.817358	0.391684
6953.508209	0.339769	104.687500	192.773437
6953.510211	0.347673	104.687500	192.773437
6953.514209	0.346258	3.808833	0.381930
6954.556223	0.257214	473.437500	-25.683594
6954.558224	0.348759	473.437500	-25.683594
6954.560224	0.347530	3.822835	0.408534
6955.588271	0.333116	106.933594	164.355469
6955.590273	0.348356	106.933594	164.355469
6955.594271	0.346797	3.814770	0.361947
6956.632323	0.349679	470.703125	-27.539062
6956.634325	0.348508	3.833585	0.568675
6957.670348	0.348825	108.300781	155.957031
6957.672350	0.346947	3.816418	0.364151
6958.706436	0.336645	470.312500	-27.636719
6958.708436	0.347911	470.312500	-27.636719
6958.710436	0.346961	3.816569	0.404862
6959.744487	0.277544	105.371094	187.207031
6959.746490	0.348397	105.371094	187.207031
6959.748490	0.347199	3.819192	0.369544
6960.782548	1.728667	467.480469	-28.320312
6960.784550	0.348645	3.835100	0.401558
6961.824619	0.348388	111.914062	140.429687
6961.826622	0.347449	111.914062	140.429687
6961.828622	0.347439	3.821834	0.361744
6962.861556	0.348433	464.062500	-29.296875
6962.863561	0.347907	3.826973	0.407063
6963.899606	0.349910	107.910156	171.191406
6963.901609	0.348811	3.836917	0.517761
6964.935663	0.348218	468.261719	-28.027344
6964.937665	0.347334	3.820672	0.403836
6965.977730	0.348554	108.300781	168.750000
6965.979731	0.347703	3.824731	0.362719
6967.015790	0.349080	471.582031	-27.343750
6967.017792	0.348301	3.831307	0.404743
6968.050371	0.348640	109.570312	150.292969
6968.052373	0.349647	3.846116	0.357778
6969.092940	0.348407	474.902344	-25.781250
6969.094942	0.347402	3.821417	0.409980
6970.123925	0.294457	106.347656	171.582031
6970.125927	0.348230	106.347656	171.582031
6970.127926	0.347126	3.818386	0.364442
6971.171960	0.348351	476.367187	-25.195312
6971.173964	0.347163	3.818794	0.407421
6972.198538	0.330982	109.277344	155.371094
6972.200539	0.348106	109.277344	155.371094
6972.202540	0.347131	3.818439	0.365150
6973.250622	0.348339	478.125000	-22.753906
6973.252622	0.347157	3.818723	0.401500
6974.273198	0.332548	114.648437	145.312500
6974.275202	0.347514	114.648437	145.312500
6974.277200	0.347438	3.821816	0.379313
6975.327234	0.323230	477.929687	-20.117187
6975.329236	0.347607	477.929687	-20.117187
6975.331236	0.346558	3.812138	0.388165
6976.351805	0.348393	116.992187	180.371094
6976.353806	0.347265	3.819919	0.396461
6977.402351	0.278923	474.023437	-18.457031
6977.404352	0.348502	474.023437	-18.457031
6977.406353	0.347336	3.820699	0.376401
6978.430928	0.348548	123.242187	169.238281
6978.432930	0.347406	3.821470	0.402835
6979.477893	0.351402	467.480469	-18.457031
6979.479896	0.350579	3.856370	0.367236
6980.512469	0.348098	119.531250	184.472656
6980.514470	0.346897	3.815869	0.396995
6981.551062	0.347495	464.355469	-22.265625
6981.553065	0.346733	3.814061	0.381548
6982.591644	0.348173	117.773437	160.449219
6982.593645	0.347087	3.817961	0.395830
6983.624577	0.341445	465.527344	-26.953125
6983.626578	0.348094	465.527344	-26.953125
6983.628579	0.347168	3.818847	0.394754
6984.666582	0.276564	108.984375	194.140625
6984.670583	0.346845	108.984375	194.140625
6984.674582	0.345768	3.803453	0.376917
6985.702635	0.347504	467.187500	-29.394531
6985.704638	0.347983	3.827815	0.410344
6986.742671	0.341694	109.179687	171.679687
6986.744671	0.347949	109.179687	171.679687
6986.748671	0.346483	3.811314	0.359409
6987.780739	0.291718	475.585937	-26.855469
6987.782741	0.348502	475.585937	-26.855469
6987.784741	0.347341	3.820752	0.409254
6988.814804	0.320736	104.785156	198.144531
6988.816804	0.348116	104.785156	198.144531
6988.818805	0.347102	3.818120	0.366695
6989.862857	0.348428	478.613281	-24.609375
6989.864860	0.347692	3.824607	0.400469
6990.889421	0.349164	103.417969	217.089844
6990.891423	0.348506	3.833567	0.364159
6991.939444	0.314108	479.492187	-23.242187
6991.941445	0.347957	479.492187	-23.242187
6991.943445	0.346869	3.815559	0.405294
6992.965501	0.348570	116.015625	152.246094
6992.967502	0.347340	3.820744	0.382750
6994.018048	0.337356	479.003906	-22.167969
6994.020049	0.348625	479.003906	-22.167969
6994.022046	0.347751	3.825263	0.386947
6995.040109	2.186241	118.457031	162.500000
6995.042110	0.348966	118.457031	162.500000
6995.044112	0.347825	3.826078	0.398959
6996.096179	0.349728	477.929687	-21.191406
6996.098180	0.348634	3.834976	0.495094
6997.120170	0.348936	117.480469	192.285156
6997.122173	0.348151	3.829659	0.392690
6998.170701	0.345980	476.953125	-20.507812
6998.172704	0.348382	3.832202	0.375627
6999.198782	0.347803	118.261719	195.605469
6999.200784	0.347053	3.817589	0.472552
7000.249348	0.348689	474.414062	-21.289062
7000.251349	0.347765	3.825414	0.373124
7001.273307	0.348429	116.406250	216.796875
7001.275309	0.347663	3.824288	0.393798
7002.323357	0.268527	474.316406	-20.703125
7002.325358	0.348477	474.316406	-20.703125
7002.327358	0.347270	3.819973	0.381350
7003.351391	0.347726	123.535156	166.503906
7003.353392	0.346936	3.816295	0.396327
7004.399458	0.261729	477.050781	-19.824219
7004.401458	0.348437	477.050781	-19.824219
7004.403459	0.347196	3.819157	0.378232
7005.425525	0.340618	113.671875	228.906250
7005.427525	0.347906	113.671875	228.906250
7005.429526	0.347017	3.817189	0.398334
7006.481595	0.347291	475.683594	-22.070312
7006.483595	0.346512	3.811633	0.528780
7007.501608	0.351806	109.472656	242.871094
7007.503610	0.352015	3.872163	0.400182
7008.555627	0.348438	479.785156	-20.214844
7008.557631	0.347339	3.820726	0.455933
7009.578184	0.349672	107.421875	237.109375
7009.580187	0.348674	3.835410	0.389298
